
/begin_header
/missing=-999
/delimiter=space
!
! Water absorption and scattering coefficients
! 300nm - 2450nm
!
! Absorption coefficients were derived from Pope and Fry and Kou et. al.,
! Scattering coefficients were derived from Table 1 of Smith and Baker (1981)
!
!       300-380 Smith and Baker 1981
!
!       Pope, R. M. and E. S. Fry, 1997, "Absorption spectrum (380-700 nm) of
!               pure water. II. Integrating cavity measurements,"
!               Appl. Opt.,36, 8710-8723.
!
!       Kou, L., D. Labrie, P. Chylek, 1993, "Refractive indices of water and
!               ice in the 0.65-2.5 m spectral range,"
!               Appl. Opt.,32, 3531-3540 (1993).
!
!        Smith, R.C. and K.S. Baker, 1981, "Optical properties of the clearest
!               natural waters (200-800 nm)," Appl. Opt.,20, 177-184.
!
! NOTE: for backscatter, we use 0.5*bw
!               for bw longer than 1100nm the 0.0076*(400./wvl)^4.32 was used.
!
/fields=wavelength,aw,bw
/units=nm,m^-1,m^-1
/end_header
200.00 3.07000 0.151000
201.00 2.96200 0.147800
202.00 2.85400 0.144600
203.00 2.74600 0.141400
204.00 2.63800 0.138200
205.00 2.53000 0.135000
206.00 2.42200 0.131800
207.00 2.31400 0.128600
208.00 2.20600 0.125400
209.00 2.09800 0.122200
210.00 1.99000 0.119000
211.00 1.92200 0.117050
212.00 1.85400 0.115100
213.00 1.78600 0.113150
214.00 1.71800 0.111200
215.00 1.65000 0.109250
216.00 1.58200 0.107300
217.00 1.51400 0.105350
218.00 1.44600 0.103400
219.00 1.37800 0.101450
220.00 1.31000 0.0995000
221.00 1.27170 0.0977500
222.00 1.23340 0.0960000
223.00 1.19510 0.0942500
224.00 1.15680 0.0925000
225.00 1.11850 0.0907500
226.00 1.08020 0.0890000
227.00 1.04190 0.0872500
228.00 1.00360 0.0855000
229.00 0.965300 0.0837500
230.00 0.927000 0.0820000
231.00 0.906300 0.0806500
232.00 0.885600 0.0793000
233.00 0.864900 0.0779500
234.00 0.844200 0.0766000
235.00 0.823500 0.0752500
236.00 0.802800 0.0739000
237.00 0.782100 0.0725500
238.00 0.761400 0.0712000
239.00 0.740700 0.0698500
240.00 0.720000 0.0685000
241.00 0.703900 0.0674000
242.00 0.687800 0.0663000
243.00 0.671700 0.0652000
244.00 0.655600 0.0641000
245.00 0.639500 0.0630000
246.00 0.623400 0.0619000
247.00 0.607300 0.0608000
248.00 0.591200 0.0597000
249.00 0.575100 0.0586000
250.00 0.559000 0.0575000
251.00 0.548800 0.0566000
252.00 0.538600 0.0557000
253.00 0.528400 0.0548000
254.00 0.518200 0.0539000
255.00 0.508000 0.0530000
256.00 0.497800 0.0521000
257.00 0.487600 0.0512000
258.00 0.477400 0.0503000
259.00 0.467200 0.0494000
260.00 0.457000 0.0485000
261.00 0.448600 0.0478000
262.00 0.440200 0.0471000
263.00 0.431800 0.0464000
264.00 0.423400 0.0457000
265.00 0.415000 0.0450000
266.00 0.406600 0.0443000
267.00 0.398200 0.0436000
268.00 0.389800 0.0429000
269.00 0.381400 0.0422000
270.00 0.373000 0.0415000
271.00 0.364500 0.0408800
272.00 0.356000 0.0402600
273.00 0.347500 0.0396400
274.00 0.339000 0.0390200
275.00 0.330500 0.0384000
276.00 0.322000 0.0377800
277.00 0.313500 0.0371600
278.00 0.305000 0.0365400
279.00 0.296500 0.0359200
280.00 0.288000 0.0353000
281.00 0.280700 0.0348200
282.00 0.273400 0.0343400
283.00 0.266100 0.0338600
284.00 0.258800 0.0333800
285.00 0.251500 0.0329000
286.00 0.244200 0.0324200
287.00 0.236900 0.0319400
288.00 0.229600 0.0314600
289.00 0.222300 0.0309800
290.00 0.215000 0.0305000
291.00 0.207600 0.0300700
292.00 0.200200 0.0296400
293.00 0.192800 0.0292100
294.00 0.185400 0.0287800
295.00 0.178000 0.0283500
296.00 0.170600 0.0279200
297.00 0.163200 0.0274900
298.00 0.155800 0.0270600
299.00 0.148400 0.0266300
300.00 0.141000 0.0262000
301.00 0.137400 0.0258700
302.00 0.133800 0.0255400
303.00 0.130200 0.0252100
304.00 0.126600 0.0248800
305.00 0.123000 0.0245500
306.00 0.119400 0.0242200
307.00 0.115800 0.0238900
308.00 0.112200 0.0235600
309.00 0.108600 0.0232300
310.00 0.105000 0.0229000
311.00 0.102940 0.0226100
312.00 0.100880 0.0223200
313.00 0.0988200 0.0220300
314.00 0.0967600 0.0217400
315.00 0.0947000 0.0214500
316.00 0.0926400 0.0211600
317.00 0.0905800 0.0208700
318.00 0.0885200 0.0205800
319.00 0.0864600 0.0202900
320.00 0.0844000 0.0200000
321.00 0.0827400 0.0197500
322.00 0.0810800 0.0195000
323.00 0.0794200 0.0192500
324.00 0.0777600 0.0190000
325.00 0.0761000 0.0187500
326.00 0.0744400 0.0185000
327.00 0.0727800 0.0182500
328.00 0.0711200 0.0180000
329.00 0.0694600 0.0177500
330.00 0.0678000 0.0175000
331.00 0.0666300 0.0172800
332.00 0.0654600 0.0170600
333.00 0.0642900 0.0168400
334.00 0.0631200 0.0166200
335.00 0.0619500 0.0164000
336.00 0.0607800 0.0161800
337.00 0.0596100 0.0159600
338.00 0.0584400 0.0157400
339.00 0.0572700 0.0155200
340.00 0.0561000 0.0153000
341.00 0.0551200 0.0151100
342.00 0.0541400 0.0149200
343.00 0.0531600 0.0147300
344.00 0.0521800 0.0145400
345.00 0.0512000 0.0143500
346.00 0.0502200 0.0141600
347.00 0.0492400 0.0139700
348.00 0.0482600 0.0137800
349.00 0.0472800 0.0135900
350.00 0.0463000 0.0134000
351.00 0.0454600 0.0132600
352.00 0.0446200 0.0131200
353.00 0.0437800 0.0129800
354.00 0.0429400 0.0128400
355.00 0.0421000 0.0127000
356.00 0.0412600 0.0125600
357.00 0.0404200 0.0124200
358.00 0.0395800 0.0122800
359.00 0.0387400 0.0121400
360.00 0.0379000 0.0120000
361.00 0.0371100 0.0118600
362.00 0.0363200 0.0117200
363.00 0.0355300 0.0115800
364.00 0.0347400 0.0114400
365.00 0.0339500 0.0113000
366.00 0.0331600 0.0111600
367.00 0.0323700 0.0110200
368.00 0.0315800 0.0108800
369.00 0.0307900 0.0107400
370.00 0.0300000 0.0106000
371.00 0.0281370 0.0104810
372.00 0.0262740 0.0103620
373.00 0.0244110 0.0102431
374.00 0.0225480 0.0101241
375.00 0.0206850 0.0100051
376.00 0.0188220 0.00988614
377.00 0.0169590 0.00976717
378.00 0.0150960 0.00964819
379.00 0.0132330 0.00952922
380.00 0.0113700 0.00941024
381.00 0.0110203 0.00930455
382.00 0.0106483 0.00920034
383.00 0.0102120 0.00909758
384.00 0.00975339 0.00899621
385.00 0.00941000 0.00889624
386.00 0.00928117 0.00879765
387.00 0.00922780 0.00870040
388.00 0.00906620 0.00860448
389.00 0.00877890 0.00850987
390.00 0.00851000 0.00841652
391.00 0.00836968 0.00832446
392.00 0.00831129 0.00823363
393.00 0.00826448 0.00814403
394.00 0.00820152 0.00805564
395.00 0.00813000 0.00796843
396.00 0.00804442 0.00788237
397.00 0.00788488 0.00779747
398.00 0.00756564 0.00771370
399.00 0.00710498 0.00763105
400.00 0.00663000 0.00754947
401.00 0.00623884 0.00746898
402.00 0.00592456 0.00738954
403.00 0.00566888 0.00731116
404.00 0.00546200 0.00723380
405.00 0.00530000 0.00715744
406.00 0.00518174 0.00708208
407.00 0.00508200 0.00700770
408.00 0.00497278 0.00693430
409.00 0.00484953 0.00686183
410.00 0.00473000 0.00679030
411.00 0.00462955 0.00671969
412.00 0.00455056 0.00665000
413.00 0.00449607 0.00658119
414.00 0.00446275 0.00651325
415.00 0.00444000 0.00644620
416.00 0.00442213 0.00637997
417.00 0.00441552 0.00631460
418.00 0.00443160 0.00625006
419.00 0.00447408 0.00618633
420.00 0.00454000 0.00612341
421.00 0.00462587 0.00606126
422.00 0.00470876 0.00599991
423.00 0.00476025 0.00593931
424.00 0.00477703 0.00587948
425.00 0.00478000 0.00582039
426.00 0.00478581 0.00576203
427.00 0.00480359 0.00570439
428.00 0.00484278 0.00564748
429.00 0.00489844 0.00559125
430.00 0.00495000 0.00553572
431.00 0.00498367 0.00548087
432.00 0.00501632 0.00542669
433.00 0.00507250 0.00537317
434.00 0.00516535 0.00532030
435.00 0.00530000 0.00526809
436.00 0.00548234 0.00521649
437.00 0.00569206 0.00516553
438.00 0.00590719 0.00511518
439.00 0.00612286 0.00506544
440.00 0.00635000 0.00501629
441.00 0.00659592 0.00496773
442.00 0.00684325 0.00491975
443.00 0.00706914 0.00487235
444.00 0.00727939 0.00482551
445.00 0.00751000 0.00477922
446.00 0.00779177 0.00473349
447.00 0.00812012 0.00468829
448.00 0.00848944 0.00464363
449.00 0.00887378 0.00459950
450.00 0.00922000 0.00455587
451.00 0.00947955 0.00451277
452.00 0.00964573 0.00447016
453.00 0.00970564 0.00442806
454.00 0.00967837 0.00438644
455.00 0.00962000 0.00434531
456.00 0.00957408 0.00430465
457.00 0.00955956 0.00426447
458.00 0.00959539 0.00422474
459.00 0.00967982 0.00418548
460.00 0.00979000 0.00414666
461.00 0.00990738 0.00410829
462.00 0.0100110 0.00407036
463.00 0.0100767 0.00403286
464.00 0.0101028 0.00399579
465.00 0.0101100 0.00395914
466.00 0.0101179 0.00392290
467.00 0.0101567 0.00388707
468.00 0.0102648 0.00385165
469.00 0.0104326 0.00381663
470.00 0.0106000 0.00378200
471.00 0.0107245 0.00374776
472.00 0.0108354 0.00371390
473.00 0.0109773 0.00368042
474.00 0.0111674 0.00364732
475.00 0.0114000 0.00361458
476.00 0.0116718 0.00358220
477.00 0.0119590 0.00355018
478.00 0.0122352 0.00351852
479.00 0.0124849 0.00348721
480.00 0.0127000 0.00345623
481.00 0.0128733 0.00342561
482.00 0.0130249 0.00339531
483.00 0.0131786 0.00336535
484.00 0.0133594 0.00333571
485.00 0.0136000 0.00330639
486.00 0.0139217 0.00327740
487.00 0.0142562 0.00324872
488.00 0.0145167 0.00322035
489.00 0.0147218 0.00319228
490.00 0.0150000 0.00316451
491.00 0.0154460 0.00313705
492.00 0.0159605 0.00310988
493.00 0.0164104 0.00308300
494.00 0.0168052 0.00305641
495.00 0.0173000 0.00303010
496.00 0.0180044 0.00300407
497.00 0.0187652 0.00297832
498.00 0.0193765 0.00295284
499.00 0.0198465 0.00292763
500.00 0.0204000 0.00290269
501.00 0.0212178 0.00287801
502.00 0.0222398 0.00285358
503.00 0.0233812 0.00282942
504.00 0.0245457 0.00280551
505.00 0.0256000 0.00278185
506.00 0.0264707 0.00275843
507.00 0.0274033 0.00273526
508.00 0.0287338 0.00271232
509.00 0.0305091 0.00268963
510.00 0.0325000 0.00266717
511.00 0.0345183 0.00264495
512.00 0.0363866 0.00262295
513.00 0.0378981 0.00260118
514.00 0.0389658 0.00257963
515.00 0.0396000 0.00255830
516.00 0.0398008 0.00253719
517.00 0.0398401 0.00251629
518.00 0.0400304 0.00249561
519.00 0.0404380 0.00247514
520.00 0.0409000 0.00245488
521.00 0.0412824 0.00243482
522.00 0.0415368 0.00241496
523.00 0.0416143 0.00239531
524.00 0.0415934 0.00237585
525.00 0.0417000 0.00235659
526.00 0.0420963 0.00233752
527.00 0.0425947 0.00231864
528.00 0.0429418 0.00229995
529.00 0.0431310 0.00228144
530.00 0.0434000 0.00226312
531.00 0.0439153 0.00224499
532.00 0.0444835 0.00222703
533.00 0.0448345 0.00220925
534.00 0.0449769 0.00219164
535.00 0.0452000 0.00217421
536.00 0.0457133 0.00215695
537.00 0.0463335 0.00213986
538.00 0.0468017 0.00212294
539.00 0.0470912 0.00210618
540.00 0.0474000 0.00208959
541.00 0.0478872 0.00207315
542.00 0.0485314 0.00205688
543.00 0.0492963 0.00204077
544.00 0.0501581 0.00202481
545.00 0.0511000 0.00200900
546.00 0.0521145 0.00199335
547.00 0.0531686 0.00197785
548.00 0.0542310 0.00196250
549.00 0.0553184 0.00194730
550.00 0.0565000 0.00193224
551.00 0.0577925 0.00191733
552.00 0.0589193 0.00190255
553.00 0.0595041 0.00188792
554.00 0.0595803 0.00187343
555.00 0.0596000 0.00185907
556.00 0.0598970 0.00184486
557.00 0.0603632 0.00183077
558.00 0.0608166 0.00181682
559.00 0.0612635 0.00180300
560.00 0.0619000 0.00178931
561.00 0.0628430 0.00177575
562.00 0.0637320 0.00176232
563.00 0.0640850 0.00174901
564.00 0.0640037 0.00173582
565.00 0.0642000 0.00172276
566.00 0.0652007 0.00170983
567.00 0.0665711 0.00169701
568.00 0.0677101 0.00168431
569.00 0.0685426 0.00167172
570.00 0.0695000 0.00165926
571.00 0.0709048 0.00164691
572.00 0.0725209 0.00163467
573.00 0.0740183 0.00162254
574.00 0.0754374 0.00161053
575.00 0.0772000 0.00159863
576.00 0.0796204 0.00158683
577.00 0.0823143 0.00157514
578.00 0.0847790 0.00156356
579.00 0.0870291 0.00155209
580.00 0.0896000 0.00154072
581.00 0.0929306 0.00152945
582.00 0.0968246 0.00151828
583.00 0.101031 0.00150722
584.00 0.105430 0.00149625
585.00 0.110000 0.00148538
586.00 0.114740 0.00147462
587.00 0.119573 0.00146394
588.00 0.124430 0.00145337
589.00 0.129465 0.00144289
590.00 0.135100 0.00143250
591.00 0.141631 0.00142220
592.00 0.148400 0.00141199
593.00 0.154571 0.00140188
594.00 0.160380 0.00139186
595.00 0.167200 0.00138192
596.00 0.176172 0.00137207
597.00 0.186786 0.00136231
598.00 0.198406 0.00135264
599.00 0.210481 0.00134305
600.00 0.222400 0.00133354
601.00 0.233525 0.00132412
602.00 0.243112 0.00131478
603.00 0.250112 0.00130552
604.00 0.254581 0.00129634
605.00 0.257700 0.00128724
606.00 0.260227 0.00127822
607.00 0.262196 0.00126928
608.00 0.263380 0.00126042
609.00 0.263926 0.00125163
610.00 0.264400 0.00124292
611.00 0.265200 0.00123429
612.00 0.266112 0.00122572
613.00 0.266797 0.00121723
614.00 0.267251 0.00120882
615.00 0.267800 0.00120047
616.00 0.268716 0.00119220
617.00 0.269966 0.00118400
618.00 0.271507 0.00117587
619.00 0.273338 0.00116780
620.00 0.275500 0.00115981
621.00 0.277971 0.00115188
622.00 0.280203 0.00114402
623.00 0.281490 0.00113623
624.00 0.282111 0.00112850
625.00 0.283400 0.00112084
626.00 0.286265 0.00111324
627.00 0.289361 0.00110571
628.00 0.290849 0.00109824
629.00 0.290873 0.00109083
630.00 0.291600 0.00108348
631.00 0.294565 0.00107620
632.00 0.298175 0.00106897
633.00 0.300198 0.00106181
634.00 0.300535 0.00105470
635.00 0.301200 0.00104765
636.00 0.303627 0.00104066
637.00 0.306590 0.00103374
638.00 0.308329 0.00102686
639.00 0.309016 0.00102004
640.00 0.310800 0.00101328
641.00 0.315183 0.00100658
642.00 0.320167 0.000999928
643.00 0.323018 0.000993332
644.00 0.323725 0.000986790
645.00 0.325000 0.000980300
646.00 0.328771 0.000973864
647.00 0.333280 0.000967480
648.00 0.336031 0.000961148
649.00 0.337261 0.000954867
650.00 0.340000 0.000948637
651.00 0.346473 0.000942459
652.00 0.354443 0.000936329
653.00 0.360860 0.000930249
654.00 0.365520 0.000924216
655.00 0.371000 0.000918233
656.00 0.379205 0.000912299
657.00 0.388580 0.000906410
658.00 0.396933 0.000900570
659.00 0.403738 0.000894776
660.00 0.410000 0.000889028
661.00 0.416316 0.000883326
662.00 0.421892 0.000877670
663.00 0.425473 0.000872057
664.00 0.427267 0.000866491
665.00 0.429000 0.000860967
666.00 0.431860 0.000855486
667.00 0.434888 0.000850050
668.00 0.436651 0.000844656
669.00 0.437374 0.000839305
670.00 0.439000 0.000833996
671.00 0.442831 0.000828727
672.00 0.446836 0.000823501
673.00 0.448228 0.000818314
674.00 0.447396 0.000813168
675.00 0.448000 0.000808063
676.00 0.452668 0.000802998
677.00 0.458693 0.000797972
678.00 0.462323 0.000792983
679.00 0.463340 0.000788034
680.00 0.465000 0.000783124
681.00 0.469671 0.000778251
682.00 0.475506 0.000773416
683.00 0.479853 0.000768618
684.00 0.482573 0.000763857
685.00 0.486000 0.000759132
686.00 0.491858 0.000754444
687.00 0.498773 0.000749791
688.00 0.504818 0.000745175
689.00 0.509950 0.000740593
690.00 0.516000 0.000736045
691.00 0.524322 0.000731533
692.00 0.533593 0.000727055
693.00 0.542024 0.000722611
694.00 0.549776 0.000718201
695.00 0.559000 0.000713823
696.00 0.571332 0.000709479
697.00 0.585185 0.000705168
698.00 0.598461 0.000700888
699.00 0.610898 0.000696642
700.00 0.624000 0.000692427
701.00 0.638935 0.000688244
702.00 0.654938 0.000684091
703.00 0.670973 0.000679971
704.00 0.687006 0.000675880
705.00 0.704000 0.000671820
706.00 0.722945 0.000667791
707.00 0.744251 0.000663791
708.00 0.768628 0.000659821
709.00 0.796289 0.000655881
710.00 0.827000 0.000651969
711.00 0.860747 0.000648087
712.00 0.896148 0.000644233
713.00 0.931794 0.000640408
714.00 0.968022 0.000636611
715.00 1.00700 0.000632842
716.00 1.05044 0.000629100
717.00 1.09617 0.000625385
718.00 1.14145 0.000621698
719.00 1.18582 0.000618037
720.00 1.23100 0.000614403
721.00 1.27859 0.000610796
722.00 1.32924 0.000607216
723.00 1.38379 0.000603660
724.00 1.43945 0.000600132
725.00 1.48900 0.000596628
726.00 1.53309 0.000593149
727.00 1.61011 0.000589697
728.00 1.76070 0.000586268
729.00 1.84440 0.000582864
730.00 1.96240 0.000579485
731.00 2.08010 0.000576131
732.00 2.19740 0.000572801
733.00 2.31440 0.000569494
734.00 2.44820 0.000566211
735.00 2.53040 0.000562950
736.00 2.61230 0.000559714
737.00 2.64505 0.000556501
738.00 2.67330 0.000553310
739.00 2.73770 0.000550142
740.00 2.76800 0.000546996
741.00 2.79820 0.000543873
742.00 2.81130 0.000540772
743.00 2.82450 0.000537693
744.00 2.83760 0.000534635
745.00 2.83380 0.000531599
746.00 2.84680 0.000528585
747.00 2.84300 0.000525592
748.00 2.85600 0.000522619
749.00 2.85222 0.000519667
750.00 2.84840 0.000516736
751.00 2.86130 0.000513826
752.00 2.85750 0.000510936
753.00 2.87040 0.000508066
754.00 2.86660 0.000505216
755.00 2.87940 0.000502386
756.00 2.87560 0.000499576
757.00 2.87046 0.000496785
758.00 2.86810 0.000494013
759.00 2.86430 0.000491260
760.00 2.86050 0.000488526
761.00 2.87330 0.000485811
762.00 2.86950 0.000483115
763.00 2.86570 0.000480438
764.00 2.86118 0.000477779
765.00 2.85820 0.000475138
766.00 2.85450 0.000472516
767.00 2.83440 0.000469911
768.00 2.83070 0.000467323
769.00 2.82700 0.000464754
770.00 2.82340 0.000462202
771.00 2.81580 0.000459668
772.00 2.79980 0.000457151
773.00 2.77990 0.000454650
774.00 2.77630 0.000452167
775.00 2.75650 0.000449700
776.00 2.75290 0.000447251
777.00 2.74563 0.000444817
778.00 2.72970 0.000442401
779.00 2.71010 0.000440000
780.00 2.69050 0.000437615
781.00 2.65490 0.000435247
782.00 2.63979 0.000432895
783.00 2.63200 0.000430558
784.00 2.61270 0.000428236
785.00 2.59330 0.000425931
786.00 2.55800 0.000423640
787.00 2.52290 0.000421366
788.00 2.51291 0.000419106
789.00 2.50050 0.000416861
790.00 2.46560 0.000414631
791.00 2.44650 0.000412416
792.00 2.41170 0.000410215
793.00 2.38883 0.000408030
794.00 2.37400 0.000405858
795.00 2.35520 0.000403700
796.00 2.33650 0.000401558
797.00 2.31780 0.000399429
798.00 2.30361 0.000397314
799.00 2.28050 0.000395213
800.00 2.24620 0.000393126
801.00 2.24340 0.000391052
802.00 2.23807 0.000388992
803.00 2.22220 0.000386946
804.00 2.20380 0.000384913
805.00 2.20110 0.000382893
806.00 2.20380 0.000380886
807.00 2.19560 0.000378892
808.00 2.17730 0.000376911
809.00 2.19020 0.000374943
810.00 2.18750 0.000372988
811.00 2.18851 0.000371045
812.00 2.19760 0.000369115
813.00 2.21030 0.000367197
814.00 2.22300 0.000365292
815.00 2.23308 0.000363399
816.00 2.24840 0.000361518
817.00 2.27640 0.000359650
818.00 2.30430 0.000357792
819.00 2.31136 0.000355947
820.00 2.32940 0.000354114
821.00 2.38780 0.000352293
822.00 2.44600 0.000350483
823.00 2.47551 0.000348684
824.00 2.51630 0.000346898
825.00 2.61990 0.000345122
826.00 2.76890 0.000343358
827.00 2.83076 0.000341605
828.00 2.91390 0.000339863
829.00 3.10750 0.000338132
830.00 3.21308 0.000336412
831.00 3.29660 0.000334702
832.00 3.45880 0.000333004
833.00 3.60550 0.000331316
834.00 3.66155 0.000329639
835.00 3.70220 0.000327972
836.00 3.78790 0.000326316
837.00 3.82820 0.000324671
838.00 3.85390 0.000323035
839.00 3.90920 0.000321410
840.00 3.94940 0.000319795
841.00 3.97239 0.000318190
842.00 3.99970 0.000316594
843.00 4.03970 0.000315009
844.00 4.05653 0.000313434
845.00 4.07480 0.000311868
846.00 4.11450 0.000310312
847.00 4.12683 0.000308766
848.00 4.14930 0.000307229
849.00 4.20360 0.000305702
850.00 4.19860 0.000304184
851.00 4.22320 0.000302675
852.00 4.25357 0.000301176
853.00 4.27230 0.000299686
854.00 4.28030 0.000298205
855.00 4.30640 0.000296734
856.00 4.36010 0.000295271
857.00 4.36940 0.000293817
858.00 4.37920 0.000292372
859.00 4.43260 0.000290936
860.00 4.45336 0.000289509
861.00 4.46610 0.000288090
862.00 4.50470 0.000286679
863.00 4.52734 0.000285278
864.00 4.55240 0.000283885
865.00 4.60520 0.000282500
866.00 4.65800 0.000281124
867.00 4.69036 0.000279756
868.00 4.70520 0.000278397
869.00 4.71356 0.000277045
870.00 4.75210 0.000275702
871.00 4.83320 0.000274367
872.00 4.86718 0.000273039
873.00 4.89410 0.000271720
874.00 4.96040 0.000270408
875.00 5.00551 0.000269105
876.00 5.04950 0.000267809
877.00 5.11540 0.000266521
878.00 5.15329 0.000265241
879.00 5.20380 0.000263968
880.00 5.29790 0.000262703
881.00 5.34581 0.000261445
882.00 5.38560 0.000260195
883.00 5.46490 0.000258952
884.00 5.52721 0.000257717
885.00 5.56610 0.000256489
886.00 5.59630 0.000255268
887.00 5.65270 0.000254054
888.00 5.74540 0.000252848
889.00 5.78864 0.000251649
890.00 5.83140 0.000250456
891.00 5.92350 0.000249271
892.00 5.98141 0.000248093
893.00 6.00880 0.000246921
894.00 6.03605 0.000245757
895.00 6.09360 0.000244599
896.00 6.18500 0.000243448
897.00 6.22650 0.000242304
898.00 6.26920 0.000241166
899.00 6.36010 0.000240036
900.00 6.40734 0.000238911
901.00 6.45750 0.000237793
902.00 6.56180 0.000236682
903.00 6.63493 0.000235577
904.00 6.67240 0.000234478
905.00 6.70015 0.000233386
906.00 6.76860 0.000232300
907.00 6.89970 0.000231220
908.00 6.98747 0.000230147
909.00 7.03660 0.000229080
910.00 7.08601 0.000228019
911.00 7.18670 0.000226964
912.00 7.35790 0.000225915
913.00 7.48412 0.000224872
914.00 7.56180 0.000223835
915.00 7.63175 0.000222804
916.00 7.79220 0.000221779
917.00 8.08520 0.000220760
918.00 8.28896 0.000219746
919.00 8.40950 0.000218739
920.00 8.53135 0.000217737
921.00 8.80060 0.000216740
922.00 9.26800 0.000215750
923.00 9.58290 0.000214765
924.00 9.81920 0.000213785
925.00 10.1232 0.000212811
926.00 10.4222 0.000211843
927.00 10.6670 0.000210880
928.00 11.1310 0.000209923
929.00 11.9441 0.000208971
930.00 12.4581 0.000208024
931.00 12.8093 0.000207082
932.00 13.2722 0.000206146
933.00 13.7382 0.000205216
934.00 14.1016 0.000204290
935.00 14.6496 0.000203369
936.00 15.5737 0.000202454
937.00 16.3425 0.000201544
938.00 16.8802 0.000200639
939.00 17.3275 0.000199739
940.00 18.1811 0.000198843
941.00 19.6308 0.000197953
942.00 20.4929 0.000197068
943.00 21.0550 0.000196188
944.00 21.8763 0.000195312
945.00 22.8721 0.000194442
946.00 23.8476 0.000193576
947.00 24.6816 0.000192715
948.00 25.4418 0.000191859
949.00 27.0131 0.000191008
950.00 29.7625 0.000190161
951.00 31.5131 0.000189319
952.00 32.7359 0.000188481
953.00 34.3879 0.000187648
954.00 36.2238 0.000186820
955.00 37.8461 0.000185996
956.00 39.3028 0.000185177
957.00 40.6764 0.000184362
958.00 41.8442 0.000183552
959.00 42.7390 0.000182746
960.00 43.8514 0.000181944
961.00 45.3749 0.000181147
962.00 46.0970 0.000180354
963.00 46.3246 0.000179565
964.00 46.6348 0.000178781
965.00 47.0099 0.000178001
966.00 47.3262 0.000177225
967.00 47.5625 0.000176454
968.00 47.7219 0.000175686
969.00 47.8534 0.000174923
970.00 47.9995 0.000174164
971.00 48.1430 0.000173409
972.00 48.2686 0.000172657
973.00 48.4315 0.000171911
974.00 48.6399 0.000171168
975.00 48.6998 0.000170428
976.00 48.6689 0.000169693
977.00 48.6389 0.000168962
978.00 48.5694 0.000168235
979.00 48.4092 0.000167512
980.00 48.2138 0.000166792
981.00 48.0396 0.000166076
982.00 47.8597 0.000165365
983.00 47.6373 0.000164657
984.00 47.3793 0.000163952
985.00 47.0944 0.000163252
986.00 46.7734 0.000162555
987.00 46.4093 0.000161862
988.00 46.0428 0.000161172
989.00 45.7021 0.000160487
990.00 45.3151 0.000159804
991.00 44.8213 0.000159126
992.00 44.3370 0.000158451
993.00 43.9707 0.000157779
994.00 43.6157 0.000157111
995.00 43.1562 0.000156447
996.00 42.6449 0.000155786
997.00 42.1513 0.000155128
998.00 41.6780 0.000154474
999.00 41.2102 0.000153824
1000.0 40.7150 0.000153176
1001.0 40.1700 0.000152533
1002.0 39.6305 0.000151892
1003.0 39.1477 0.000151255
1004.0 38.6754 0.000150621
1005.0 38.1591 0.000149991
1006.0 37.5992 0.000149363
1007.0 37.0061 0.000148739
1008.0 36.4026 0.000148119
1009.0 35.8069 0.000147501
1010.0 35.2107 0.000146887
1011.0 34.6071 0.000146275
1012.0 34.0236 0.000145667
1013.0 33.4855 0.000145063
1014.0 32.9650 0.000144461
1015.0 32.4343 0.000143862
1016.0 31.9107 0.000143266
1017.0 31.4059 0.000142674
1018.0 30.8604 0.000142084
1019.0 30.2225 0.000141498
1020.0 29.5679 0.000140914
1021.0 28.9736 0.000140334
1022.0 28.4034 0.000139756
1023.0 27.8154 0.000139182
1024.0 27.2435 0.000138610
1025.0 26.7229 0.000138041
1026.0 26.2106 0.000137476
1027.0 25.6570 0.000136913
1028.0 25.0594 0.000136353
1029.0 24.4408 0.000135795
1030.0 23.9127 0.000135241
1031.0 23.5719 0.000134689
1032.0 23.3133 0.000134141
1033.0 22.9917 0.000133595
1034.0 22.5082 0.000133051
1035.0 21.9760 0.000132511
1036.0 21.5148 0.000131973
1037.0 21.0853 0.000131438
1038.0 20.6353 0.000130905
1039.0 20.1981 0.000130376
1040.0 19.8110 0.000129848
1041.0 19.4350 0.000129324
1042.0 19.0366 0.000128802
1043.0 18.6749 0.000128283
1044.0 18.4080 0.000127766
1045.0 18.1776 0.000127252
1046.0 17.9005 0.000126741
1047.0 17.5243 0.000126232
1048.0 17.1469 0.000125726
1049.0 16.8668 0.000125222
1050.0 16.6355 0.000124721
1051.0 16.3901 0.000124222
1052.0 16.1260 0.000123725
1053.0 15.8560 0.000123231
1054.0 15.6185 0.000122740
1055.0 15.4489 0.000122251
1056.0 15.3248 0.000121764
1057.0 15.2176 0.000121280
1058.0 15.1025 0.000120798
1059.0 14.9515 0.000120319
1060.0 14.7505 0.000119842
1061.0 14.5680 0.000119367
1062.0 14.4704 0.000118895
1063.0 14.4224 0.000118425
1064.0 14.3792 0.000117957
1065.0 14.3285 0.000117491
1066.0 14.2639 0.000117028
1067.0 14.1840 0.000116567
1068.0 14.1195 0.000116109
1069.0 14.0978 0.000115652
1070.0 14.0931 0.000115198
1071.0 14.0777 0.000114746
1072.0 14.0591 0.000114296
1073.0 14.0537 0.000113849
1074.0 14.0781 0.000113403
1075.0 14.1445 0.000112960
1076.0 14.2551 0.000112519
1077.0 14.3516 0.000112080
1078.0 14.3815 0.000111643
1079.0 14.3863 0.000111208
1080.0 14.4281 0.000110776
1081.0 14.5562 0.000110345
1082.0 14.7498 0.000109917
1083.0 14.9764 0.000109490
1084.0 15.1863 0.000109066
1085.0 15.3399 0.000108644
1086.0 15.4660 0.000108223
1087.0 15.6068 0.000107805
1088.0 15.7972 0.000107389
1089.0 16.0397 0.000106974
1090.0 16.3236 0.000106562
1091.0 16.5862 0.000106152
1092.0 16.7728 0.000105744
1093.0 16.9274 0.000105337
1094.0 17.1151 0.000104933
1095.0 17.3925 0.000104530
1096.0 17.7718 0.000104130
1097.0 18.2386 0.000103731
1098.0 18.6550 0.000103334
1099.0 18.8982 0.000102939
1100.0 19.0631 0.000102546
1101.0 19.3964 9.58000E-05
1102.0 19.6667 9.54000E-05
1103.0 19.9349 9.50000E-05
1104.0 20.2489 9.46000E-05
1105.0 20.5737 9.43000E-05
1106.0 20.9127 9.39000E-05
1107.0 21.2239 9.35000E-05
1108.0 21.5529 9.32000E-05
1109.0 21.9086 9.28000E-05
1110.0 22.2636 9.25000E-05
1111.0 22.6944 9.21000E-05
1112.0 22.9628 9.17000E-05
1113.0 23.0789 9.14000E-05
1114.0 23.3174 9.10000E-05
1115.0 23.5665 9.07000E-05
1116.0 23.7063 9.03000E-05
1117.0 23.9813 9.00000E-05
1118.0 24.3816 8.96000E-05
1119.0 24.8453 8.93000E-05
1120.0 25.3530 8.89000E-05
1121.0 25.9281 8.86000E-05
1122.0 26.4729 8.83000E-05
1123.0 26.8553 8.79000E-05
1124.0 27.5181 8.76000E-05
1125.0 28.3135 8.72000E-05
1126.0 29.2337 8.69000E-05
1127.0 30.2058 8.66000E-05
1128.0 31.1231 8.62000E-05
1129.0 32.4675 8.59000E-05
1130.0 34.0425 8.56000E-05
1131.0 35.8823 8.53000E-05
1132.0 37.7504 8.49000E-05
1133.0 40.0035 8.46000E-05
1134.0 42.3875 8.43000E-05
1135.0 44.8593 8.40000E-05
1136.0 46.6073 8.37000E-05
1137.0 49.4497 8.33000E-05
1138.0 52.7012 8.30000E-05
1139.0 56.8576 8.27000E-05
1140.0 60.4057 8.24000E-05
1141.0 64.0123 8.21000E-05
1142.0 68.0757 8.18000E-05
1143.0 72.2522 8.15000E-05
1144.0 76.8516 8.12000E-05
1145.0 80.7014 8.08000E-05
1146.0 84.8504 8.05000E-05
1147.0 88.8441 8.02000E-05
1148.0 92.5026 7.99000E-05
1149.0 94.9817 7.96000E-05
1150.0 97.9895 7.93000E-05
1151.0 100.996 7.90000E-05
1152.0 104.602 7.87000E-05
1153.0 107.193 7.85000E-05
1154.0 109.369 7.82000E-05
1155.0 111.408 7.79000E-05
1156.0 113.129 7.76000E-05
1157.0 113.928 7.73000E-05
1158.0 115.076 7.70000E-05
1159.0 116.147 7.67000E-05
1160.0 117.251 7.64000E-05
1161.0 118.051 7.61000E-05
1162.0 118.618 7.59000E-05
1163.0 119.188 7.56000E-05
1164.0 119.650 7.53000E-05
1165.0 119.731 7.50000E-05
1166.0 119.987 7.47000E-05
1167.0 120.243 7.45000E-05
1168.0 120.229 7.42000E-05
1169.0 120.580 7.39000E-05
1170.0 121.038 7.36000E-05
1171.0 121.894 7.34000E-05
1172.0 122.268 7.31000E-05
1173.0 122.553 7.28000E-05
1174.0 122.922 7.26000E-05
1175.0 123.206 7.23000E-05
1176.0 123.046 7.20000E-05
1177.0 123.131 7.18000E-05
1178.0 123.275 7.15000E-05
1179.0 123.572 7.12000E-05
1180.0 123.846 7.10000E-05
1181.0 124.146 7.07000E-05
1182.0 124.513 7.05000E-05
1183.0 124.814 7.02000E-05
1184.0 125.155 7.00000E-05
1185.0 125.480 6.97000E-05
1186.0 125.778 6.94000E-05
1187.0 125.981 6.92000E-05
1188.0 126.228 6.89000E-05
1189.0 126.474 6.87000E-05
1190.0 126.719 6.84000E-05
1191.0 126.965 6.82000E-05
1192.0 127.210 6.80000E-05
1193.0 127.611 6.77000E-05
1194.0 127.809 6.75000E-05
1195.0 127.948 6.72000E-05
1196.0 128.273 6.70000E-05
1197.0 128.252 6.67000E-05
1198.0 128.079 6.65000E-05
1199.0 127.372 6.63000E-05
1200.0 127.200 6.60000E-05
1201.0 127.291 6.58000E-05
1202.0 127.137 6.55000E-05
1203.0 126.968 6.53000E-05
1204.0 126.864 6.51000E-05
1205.0 126.782 6.48000E-05
1206.0 126.643 6.46000E-05
1207.0 126.288 6.44000E-05
1208.0 125.975 6.41000E-05
1209.0 125.663 6.39000E-05
1210.0 125.352 6.37000E-05
1211.0 125.110 6.35000E-05
1212.0 124.869 6.32000E-05
1213.0 124.782 6.30000E-05
1214.0 124.426 6.28000E-05
1215.0 124.014 6.26000E-05
1216.0 123.391 6.23000E-05
1217.0 123.014 6.21000E-05
1218.0 122.638 6.19000E-05
1219.0 122.107 6.17000E-05
1220.0 121.640 6.15000E-05
1221.0 121.231 6.12000E-05
1222.0 121.036 6.10000E-05
1223.0 120.800 6.08000E-05
1224.0 120.565 6.06000E-05
1225.0 120.329 6.04000E-05
1226.0 120.026 6.02000E-05
1227.0 119.723 6.00000E-05
1228.0 119.574 5.98000E-05
1229.0 119.296 5.95000E-05
1230.0 118.961 5.93000E-05
1231.0 118.416 5.91000E-05
1232.0 117.979 5.89000E-05
1233.0 117.544 5.87000E-05
1234.0 116.957 5.85000E-05
1235.0 116.568 5.83000E-05
1236.0 116.236 5.81000E-05
1237.0 116.114 5.79000E-05
1238.0 115.817 5.77000E-05
1239.0 115.521 5.75000E-05
1240.0 115.377 5.73000E-05
1241.0 115.104 5.71000E-05
1242.0 114.776 5.69000E-05
1243.0 114.201 5.67000E-05
1244.0 113.783 5.65000E-05
1245.0 113.379 5.63000E-05
1246.0 113.043 5.61000E-05
1247.0 112.657 5.59000E-05
1248.0 112.271 5.57000E-05
1249.0 111.887 5.55000E-05
1250.0 111.397 5.53000E-05
1251.0 111.078 5.52000E-05
1252.0 110.792 5.50000E-05
1253.0 110.470 5.48000E-05
1254.0 110.226 5.46000E-05
1255.0 110.037 5.44000E-05
1256.0 110.205 5.42000E-05
1257.0 110.073 5.40000E-05
1258.0 109.886 5.38000E-05
1259.0 109.494 5.37000E-05
1260.0 109.274 5.35000E-05
1261.0 109.055 5.33000E-05
1262.0 108.717 5.31000E-05
1263.0 108.472 5.29000E-05
1264.0 108.274 5.27000E-05
1265.0 108.109 5.26000E-05
1266.0 108.038 5.24000E-05
1267.0 108.014 5.22000E-05
1268.0 108.038 5.20000E-05
1269.0 107.917 5.19000E-05
1270.0 108.076 5.17000E-05
1271.0 108.336 5.15000E-05
1272.0 108.967 5.13000E-05
1273.0 109.342 5.12000E-05
1274.0 109.717 5.10000E-05
1275.0 110.019 5.08000E-05
1276.0 110.469 5.06000E-05
1277.0 110.940 5.05000E-05
1278.0 111.197 5.03000E-05
1279.0 111.664 5.01000E-05
1280.0 112.223 5.00000E-05
1281.0 112.875 4.98000E-05
1282.0 113.959 4.96000E-05
1283.0 114.673 4.95000E-05
1284.0 115.381 4.93000E-05
1285.0 116.046 4.91000E-05
1286.0 116.803 4.90000E-05
1287.0 117.568 4.88000E-05
1288.0 118.055 4.86000E-05
1289.0 118.798 4.85000E-05
1290.0 119.633 4.83000E-05
1291.0 120.560 4.81000E-05
1292.0 121.558 4.80000E-05
1293.0 122.676 4.78000E-05
1294.0 123.891 4.77000E-05
1295.0 125.429 4.75000E-05
1296.0 126.774 4.73000E-05
1297.0 128.134 4.72000E-05
1298.0 129.231 4.70000E-05
1299.0 130.694 4.69000E-05
1300.0 132.247 4.67000E-05
1301.0 133.889 4.66000E-05
1302.0 135.298 4.64000E-05
1303.0 137.141 4.63000E-05
1304.0 139.158 4.61000E-05
1305.0 141.801 4.59000E-05
1306.0 144.085 4.58000E-05
1307.0 146.383 4.56000E-05
1308.0 148.418 4.55000E-05
1309.0 150.816 4.53000E-05
1310.0 153.301 4.52000E-05
1311.0 155.873 4.50000E-05
1312.0 158.484 4.49000E-05
1313.0 161.153 4.48000E-05
1314.0 163.921 4.46000E-05
1315.0 166.659 4.45000E-05
1316.0 169.719 4.43000E-05
1317.0 172.910 4.42000E-05
1318.0 176.232 4.40000E-05
1319.0 179.918 4.39000E-05
1320.0 183.301 4.37000E-05
1321.0 186.747 4.36000E-05
1322.0 189.837 4.35000E-05
1323.0 193.598 4.33000E-05
1324.0 197.533 4.32000E-05
1325.0 201.642 4.30000E-05
1326.0 206.304 4.29000E-05
1327.0 210.378 4.27000E-05
1328.0 214.514 4.26000E-05
1329.0 218.443 4.25000E-05
1330.0 223.029 4.23000E-05
1331.0 227.741 4.22000E-05
1332.0 232.582 4.21000E-05
1333.0 237.870 4.19000E-05
1334.0 242.476 4.18000E-05
1335.0 247.110 4.17000E-05
1336.0 252.290 4.15000E-05
1337.0 257.310 4.14000E-05
1338.0 262.188 4.12000E-05
1339.0 266.923 4.11000E-05
1340.0 269.200 4.10000E-05
1341.0 273.844 4.09000E-05
1342.0 278.849 4.07000E-05
1343.0 284.216 4.06000E-05
1344.0 291.797 4.05000E-05
1345.0 296.987 4.03000E-05
1346.0 302.003 4.02000E-05
1347.0 307.316 4.01000E-05
1348.0 312.436 3.99000E-05
1349.0 317.217 3.98000E-05
1350.0 321.658 3.97000E-05
1351.0 323.165 3.96000E-05
1352.0 327.047 3.94000E-05
1353.0 331.155 3.93000E-05
1354.0 335.488 3.92000E-05
1355.0 340.608 3.91000E-05
1356.0 345.066 3.89000E-05
1357.0 349.584 3.88000E-05
1358.0 353.994 3.87000E-05
1359.0 358.838 3.86000E-05
1360.0 363.770 3.84000E-05
1361.0 368.790 3.83000E-05
1362.0 371.670 3.82000E-05
1363.0 377.100 3.81000E-05
1364.0 383.104 3.80000E-05
1365.0 389.681 3.78000E-05
1366.0 396.400 3.77000E-05
1367.0 404.063 3.76000E-05
1368.0 412.402 3.75000E-05
1369.0 421.499 3.74000E-05
1370.0 431.325 3.72000E-05
1371.0 441.796 3.71000E-05
1372.0 452.911 3.70000E-05
1373.0 462.001 3.69000E-05
1374.0 474.787 3.68000E-05
1375.0 488.779 3.67000E-05
1376.0 503.978 3.65000E-05
1377.0 516.072 3.64000E-05
1378.0 534.154 3.63000E-05
1379.0 554.340 3.62000E-05
1380.0 576.630 3.61000E-05
1381.0 591.654 3.60000E-05
1382.0 619.726 3.59000E-05
1383.0 651.921 3.58000E-05
1384.0 688.241 3.56000E-05
1385.0 730.050 3.55000E-05
1386.0 772.595 3.54000E-05
1387.0 818.765 3.53000E-05
1388.0 870.473 3.52000E-05
1389.0 925.381 3.51000E-05
1390.0 983.269 3.50000E-05
1391.0 1044.14 3.49000E-05
1392.0 1110.88 3.48000E-05
1393.0 1175.94 3.47000E-05
1394.0 1243.44 3.46000E-05
1395.0 1313.37 3.44000E-05
1396.0 1400.64 3.43000E-05
1397.0 1474.25 3.42000E-05
1398.0 1547.19 3.41000E-05
1399.0 1619.47 3.40000E-05
1400.0 1693.75 3.39000E-05
1401.0 1765.09 3.38000E-05
1402.0 1835.22 3.37000E-05
1403.0 1904.12 3.36000E-05
1404.0 1971.75 3.35000E-05
1405.0 2037.77 3.34000E-05
1406.0 2102.58 3.33000E-05
1407.0 2166.19 3.32000E-05
1408.0 2236.54 3.31000E-05
1409.0 2296.68 3.30000E-05
1410.0 2353.96 3.29000E-05
1411.0 2408.38 3.28000E-05
1412.0 2461.16 3.27000E-05
1413.0 2510.50 3.26000E-05
1414.0 2556.72 3.25000E-05
1415.0 2599.82 3.24000E-05
1416.0 2629.08 3.23000E-05
1417.0 2667.28 3.22000E-05
1418.0 2704.60 3.21000E-05
1419.0 2741.03 3.20000E-05
1420.0 2775.20 3.19000E-05
1421.0 2809.02 3.18000E-05
1422.0 2842.23 3.17000E-05
1423.0 2874.85 3.16000E-05
1424.0 2913.44 3.15000E-05
1425.0 2944.51 3.14000E-05
1426.0 2973.61 3.13000E-05
1427.0 3000.75 3.12000E-05
1428.0 3021.59 3.11000E-05
1429.0 3045.73 3.10000E-05
1430.0 3068.76 3.10000E-05
1431.0 3090.69 3.09000E-05
1432.0 3113.17 3.08000E-05
1433.0 3131.84 3.07000E-05
1434.0 3149.12 3.06000E-05
1435.0 3165.03 3.05000E-05
1436.0 3179.55 3.04000E-05
1437.0 3193.89 3.03000E-05
1438.0 3206.43 3.02000E-05
1439.0 3217.42 3.01000E-05
1440.0 3221.47 3.00000E-05
1441.0 3228.04 2.99000E-05
1442.0 3234.31 2.99000E-05
1443.0 3240.28 2.98000E-05
1444.0 3245.96 2.97000E-05
1445.0 3252.61 2.96000E-05
1446.0 3257.57 2.95000E-05
1447.0 3262.01 2.94000E-05
1448.0 3265.94 2.93000E-05
1449.0 3270.80 2.92000E-05
1450.0 3273.45 2.91000E-05
1451.0 3275.29 2.91000E-05
1452.0 3276.32 2.90000E-05
1453.0 3276.92 2.89000E-05
1454.0 3276.44 2.88000E-05
1455.0 3275.06 2.87000E-05
1456.0 3272.79 2.86000E-05
1457.0 3277.12 2.85000E-05
1458.0 3272.40 2.85000E-05
1459.0 3265.54 2.84000E-05
1460.0 3256.54 2.83000E-05
1461.0 3245.40 2.82000E-05
1462.0 3232.90 2.81000E-05
1463.0 3218.69 2.80000E-05
1464.0 3202.27 2.80000E-05
1465.0 3183.65 2.79000E-05
1466.0 3153.16 2.78000E-05
1467.0 3130.65 2.77000E-05
1468.0 3107.89 2.76000E-05
1469.0 3084.90 2.76000E-05
1470.0 3064.06 2.75000E-05
1471.0 3039.99 2.74000E-05
1472.0 3015.21 2.73000E-05
1473.0 2989.72 2.72000E-05
1474.0 2959.76 2.72000E-05
1475.0 2933.53 2.71000E-05
1476.0 2907.15 2.70000E-05
1477.0 2880.63 2.69000E-05
1478.0 2853.95 2.68000E-05
1479.0 2825.63 2.68000E-05
1480.0 2797.87 2.67000E-05
1481.0 2770.17 2.66000E-05
1482.0 2742.53 2.65000E-05
1483.0 2714.94 2.64000E-05
1484.0 2698.58 2.64000E-05
1485.0 2668.99 2.63000E-05
1486.0 2637.59 2.62000E-05
1487.0 2604.37 2.61000E-05
1488.0 2555.77 2.61000E-05
1489.0 2522.13 2.60000E-05
1490.0 2489.43 2.59000E-05
1491.0 2457.66 2.58000E-05
1492.0 2427.45 2.58000E-05
1493.0 2394.61 2.57000E-05
1494.0 2362.75 2.56000E-05
1495.0 2331.87 2.55000E-05
1496.0 2301.97 2.55000E-05
1497.0 2278.93 2.54000E-05
1498.0 2252.32 2.53000E-05
1499.0 2225.75 2.52000E-05
1500.0 2199.21 2.52000E-05
1501.0 2171.46 2.51000E-05
1502.0 2143.20 2.50000E-05
1503.0 2115.20 2.50000E-05
1504.0 2087.48 2.49000E-05
1505.0 2060.02 2.48000E-05
1506.0 2034.42 2.47000E-05
1507.0 2008.84 2.47000E-05
1508.0 1983.30 2.46000E-05
1509.0 1957.79 2.45000E-05
1510.0 1929.66 2.45000E-05
1511.0 1902.93 2.44000E-05
1512.0 1876.69 2.43000E-05
1513.0 1850.96 2.43000E-05
1514.0 1825.72 2.42000E-05
1515.0 1801.67 2.41000E-05
1516.0 1778.35 2.40000E-05
1517.0 1755.42 2.40000E-05
1518.0 1732.88 2.39000E-05
1519.0 1705.91 2.38000E-05
1520.0 1683.56 2.38000E-05
1521.0 1662.43 2.37000E-05
1522.0 1642.52 2.36000E-05
1523.0 1623.84 2.36000E-05
1524.0 1614.71 2.35000E-05
1525.0 1597.47 2.34000E-05
1526.0 1580.30 2.34000E-05
1527.0 1563.21 2.33000E-05
1528.0 1546.18 2.32000E-05
1529.0 1530.93 2.32000E-05
1530.0 1514.71 2.31000E-05
1531.0 1498.32 2.30000E-05
1532.0 1481.78 2.30000E-05
1533.0 1465.44 2.29000E-05
1534.0 1447.75 2.29000E-05
1535.0 1429.89 2.28000E-05
1536.0 1411.84 2.27000E-05
1537.0 1393.61 2.27000E-05
1538.0 1371.05 2.26000E-05
1539.0 1353.83 2.25000E-05
1540.0 1336.95 2.25000E-05
1541.0 1320.42 2.24000E-05
1542.0 1304.24 2.23000E-05
1543.0 1284.30 2.23000E-05
1544.0 1267.96 2.22000E-05
1545.0 1252.49 2.22000E-05
1546.0 1237.89 2.21000E-05
1547.0 1224.15 2.20000E-05
1548.0 1217.67 2.20000E-05
1549.0 1204.98 2.19000E-05
1550.0 1192.14 2.19000E-05
1551.0 1179.13 2.18000E-05
1552.0 1163.05 2.17000E-05
1553.0 1149.87 2.17000E-05
1554.0 1137.00 2.16000E-05
1555.0 1124.43 2.15000E-05
1556.0 1112.17 2.15000E-05
1557.0 1100.07 2.14000E-05
1558.0 1088.07 2.14000E-05
1559.0 1076.40 2.13000E-05
1560.0 1065.07 2.13000E-05
1561.0 1054.08 2.12000E-05
1562.0 1044.66 2.11000E-05
1563.0 1034.50 2.11000E-05
1564.0 1024.52 2.10000E-05
1565.0 1014.70 2.10000E-05
1566.0 1005.07 2.09000E-05
1567.0 994.415 2.08000E-05
1568.0 985.121 2.08000E-05
1569.0 976.158 2.07000E-05
1570.0 967.527 2.07000E-05
1571.0 959.227 2.06000E-05
1572.0 952.474 2.06000E-05
1573.0 944.676 2.05000E-05
1574.0 937.047 2.04000E-05
1575.0 929.588 2.04000E-05
1576.0 922.297 2.03000E-05
1577.0 916.381 2.03000E-05
1578.0 909.429 2.02000E-05
1579.0 902.486 2.02000E-05
1580.0 895.552 2.01000E-05
1581.0 888.626 2.01000E-05
1582.0 881.711 2.00000E-05
1583.0 874.803 2.00000E-05
1584.0 867.904 1.99000E-05
1585.0 861.014 1.98000E-05
1586.0 854.132 1.98000E-05
1587.0 846.079 1.97000E-05
1588.0 839.372 1.97000E-05
1589.0 832.831 1.96000E-05
1590.0 826.456 1.96000E-05
1591.0 820.247 1.95000E-05
1592.0 814.213 1.95000E-05
1593.0 808.177 1.94000E-05
1594.0 802.307 1.94000E-05
1595.0 796.601 1.93000E-05
1596.0 791.060 1.93000E-05
1597.0 786.404 1.92000E-05
1598.0 781.256 1.92000E-05
1599.0 776.177 1.91000E-05
1600.0 771.166 1.91000E-05
1601.0 766.225 1.90000E-05
1602.0 760.773 1.89000E-05
1603.0 755.985 1.89000E-05
1604.0 751.343 1.88000E-05
1605.0 746.848 1.88000E-05
1606.0 742.500 1.87000E-05
1607.0 738.633 1.87000E-05
1608.0 734.523 1.86000E-05
1609.0 730.517 1.86000E-05
1610.0 726.614 1.85000E-05
1611.0 722.814 1.85000E-05
1612.0 719.995 1.84000E-05
1613.0 716.406 1.84000E-05
1614.0 712.821 1.83000E-05
1615.0 709.240 1.83000E-05
1616.0 705.664 1.82000E-05
1617.0 702.093 1.82000E-05
1618.0 698.192 1.82000E-05
1619.0 694.755 1.81000E-05
1620.0 691.363 1.81000E-05
1621.0 688.016 1.80000E-05
1622.0 684.713 1.80000E-05
1623.0 681.221 1.79000E-05
1624.0 677.937 1.79000E-05
1625.0 674.728 1.78000E-05
1626.0 671.595 1.78000E-05
1627.0 668.538 1.77000E-05
1628.0 665.673 1.77000E-05
1629.0 662.831 1.76000E-05
1630.0 660.049 1.76000E-05
1631.0 657.326 1.75000E-05
1632.0 654.661 1.75000E-05
1633.0 652.055 1.74000E-05
1634.0 649.426 1.74000E-05
1635.0 646.887 1.74000E-05
1636.0 644.413 1.73000E-05
1637.0 642.005 1.73000E-05
1638.0 639.663 1.72000E-05
1639.0 637.386 1.72000E-05
1640.0 635.331 1.71000E-05
1641.0 633.193 1.71000E-05
1642.0 631.102 1.70000E-05
1643.0 629.057 1.70000E-05
1644.0 627.475 1.69000E-05
1645.0 625.502 1.69000E-05
1646.0 623.521 1.69000E-05
1647.0 621.533 1.68000E-05
1648.0 619.538 1.68000E-05
1649.0 617.537 1.67000E-05
1650.0 614.921 1.67000E-05
1651.0 613.093 1.66000E-05
1652.0 611.323 1.66000E-05
1653.0 609.613 1.65000E-05
1654.0 607.963 1.65000E-05
1655.0 606.161 1.65000E-05
1656.0 604.495 1.64000E-05
1657.0 602.914 1.64000E-05
1658.0 601.417 1.63000E-05
1659.0 600.005 1.63000E-05
1660.0 598.678 1.62000E-05
1661.0 597.884 1.62000E-05
1662.0 596.769 1.62000E-05
1663.0 595.690 1.61000E-05
1664.0 594.646 1.61000E-05
1665.0 593.637 1.60000E-05
1666.0 592.610 1.60000E-05
1667.0 591.609 1.60000E-05
1668.0 590.650 1.59000E-05
1669.0 589.734 1.59000E-05
1670.0 588.859 1.58000E-05
1671.0 588.027 1.58000E-05
1672.0 587.006 1.58000E-05
1673.0 586.359 1.57000E-05
1674.0 585.782 1.57000E-05
1675.0 585.273 1.56000E-05
1676.0 584.833 1.56000E-05
1677.0 584.611 1.55000E-05
1678.0 584.220 1.55000E-05
1679.0 583.885 1.55000E-05
1680.0 583.604 1.54000E-05
1681.0 583.378 1.54000E-05
1682.0 583.208 1.54000E-05
1683.0 583.608 1.53000E-05
1684.0 583.661 1.53000E-05
1685.0 583.739 1.52000E-05
1686.0 583.842 1.52000E-05
1687.0 583.970 1.52000E-05
1688.0 584.123 1.51000E-05
1689.0 584.213 1.51000E-05
1690.0 584.489 1.50000E-05
1691.0 584.983 1.50000E-05
1692.0 585.475 1.50000E-05
1693.0 585.965 1.49000E-05
1694.0 586.453 1.49000E-05
1695.0 586.938 1.48000E-05
1696.0 587.422 1.48000E-05
1697.0 587.904 1.48000E-05
1698.0 588.383 1.47000E-05
1699.0 588.861 1.47000E-05
1700.0 587.923 1.47000E-05
1701.0 588.709 1.46000E-05
1702.0 589.595 1.46000E-05
1703.0 590.579 1.46000E-05
1704.0 591.662 1.45000E-05
1705.0 592.845 1.45000E-05
1706.0 594.133 1.44000E-05
1707.0 595.337 1.44000E-05
1708.0 596.623 1.44000E-05
1709.0 597.992 1.43000E-05
1710.0 599.774 1.43000E-05
1711.0 601.552 1.43000E-05
1712.0 603.357 1.42000E-05
1713.0 605.189 1.42000E-05
1714.0 607.050 1.42000E-05
1715.0 608.938 1.41000E-05
1716.0 610.853 1.41000E-05
1717.0 612.797 1.40000E-05
1718.0 613.856 1.40000E-05
1719.0 615.876 1.40000E-05
1720.0 617.991 1.39000E-05
1721.0 620.201 1.39000E-05
1722.0 622.506 1.39000E-05
1723.0 624.906 1.38000E-05
1724.0 628.787 1.38000E-05
1725.0 631.280 1.38000E-05
1726.0 633.747 1.37000E-05
1727.0 636.187 1.37000E-05
1728.0 638.599 1.37000E-05
1729.0 640.984 1.36000E-05
1730.0 639.970 1.36000E-05
1731.0 642.493 1.36000E-05
1732.0 645.233 1.35000E-05
1733.0 648.191 1.35000E-05
1734.0 651.366 1.35000E-05
1735.0 654.758 1.34000E-05
1736.0 658.367 1.34000E-05
1737.0 662.194 1.34000E-05
1738.0 666.238 1.33000E-05
1739.0 670.499 1.33000E-05
1740.0 672.576 1.33000E-05
1741.0 677.888 1.32000E-05
1742.0 686.102 1.32000E-05
1743.0 694.155 1.32000E-05
1744.0 701.843 1.31000E-05
1745.0 709.165 1.31000E-05
1746.0 716.122 1.31000E-05
1747.0 722.713 1.30000E-05
1748.0 725.979 1.30000E-05
1749.0 731.613 1.30000E-05
1750.0 737.230 1.29000E-05
1751.0 742.830 1.29000E-05
1752.0 748.414 1.29000E-05
1753.0 753.982 1.28000E-05
1754.0 760.116 1.28000E-05
1755.0 765.595 1.28000E-05
1756.0 771.007 1.27000E-05
1757.0 776.353 1.27000E-05
1758.0 781.632 1.27000E-05
1759.0 786.844 1.27000E-05
1760.0 788.280 1.26000E-05
1761.0 793.365 1.26000E-05
1762.0 798.616 1.26000E-05
1763.0 804.032 1.25000E-05
1764.0 809.614 1.25000E-05
1765.0 815.361 1.25000E-05
1766.0 821.274 1.24000E-05
1767.0 827.352 1.24000E-05
1768.0 833.596 1.24000E-05
1769.0 840.006 1.23000E-05
1770.0 846.619 1.23000E-05
1771.0 852.293 1.23000E-05
1772.0 858.001 1.23000E-05
1773.0 866.725 1.22000E-05
1774.0 873.738 1.22000E-05
1775.0 880.195 1.22000E-05
1776.0 886.096 1.21000E-05
1777.0 891.441 1.21000E-05
1778.0 896.230 1.21000E-05
1779.0 898.224 1.20000E-05
1780.0 901.635 1.20000E-05
1781.0 904.744 1.20000E-05
1782.0 907.549 1.20000E-05
1783.0 910.052 1.19000E-05
1784.0 912.251 1.19000E-05
1785.0 913.714 1.19000E-05
1786.0 915.443 1.18000E-05
1787.0 916.900 1.18000E-05
1788.0 918.086 1.18000E-05
1789.0 919.001 1.18000E-05
1790.0 919.645 1.17000E-05
1791.0 920.017 1.17000E-05
1792.0 915.750 1.17000E-05
1793.0 916.010 1.16000E-05
1794.0 916.346 1.16000E-05
1795.0 916.759 1.16000E-05
1796.0 917.248 1.16000E-05
1797.0 917.813 1.15000E-05
1798.0 920.396 1.15000E-05
1799.0 920.680 1.15000E-05
1800.0 920.879 1.15000E-05
1801.0 920.993 1.14000E-05
1802.0 921.022 1.14000E-05
1803.0 920.965 1.14000E-05
1804.0 920.824 1.13000E-05
1805.0 920.572 1.13000E-05
1806.0 920.802 1.13000E-05
1807.0 920.962 1.13000E-05
1808.0 921.053 1.12000E-05
1809.0 921.074 1.12000E-05
1810.0 918.293 1.12000E-05
1811.0 917.521 1.12000E-05
1812.0 916.931 1.11000E-05
1813.0 916.523 1.11000E-05
1814.0 916.296 1.11000E-05
1815.0 916.250 1.11000E-05
1816.0 916.387 1.10000E-05
1817.0 916.704 1.10000E-05
1818.0 917.746 1.10000E-05
1819.0 918.570 1.09000E-05
1820.0 919.539 1.09000E-05
1821.0 920.652 1.09000E-05
1822.0 921.910 1.09000E-05
1823.0 923.313 1.08000E-05
1824.0 923.184 1.08000E-05
1825.0 924.794 1.08000E-05
1826.0 926.680 1.08000E-05
1827.0 928.842 1.07000E-05
1828.0 931.281 1.07000E-05
1829.0 933.995 1.07000E-05
1830.0 936.986 1.07000E-05
1831.0 941.292 1.06000E-05
1832.0 944.750 1.06000E-05
1833.0 948.413 1.06000E-05
1834.0 952.281 1.06000E-05
1835.0 956.355 1.05000E-05
1836.0 960.634 1.05000E-05
1837.0 965.118 1.05000E-05
1838.0 959.457 1.05000E-05
1839.0 965.379 1.04000E-05
1840.0 972.228 1.04000E-05
1841.0 980.004 1.04000E-05
1842.0 988.707 1.04000E-05
1843.0 998.337 1.03000E-05
1844.0 1008.89 1.03000E-05
1845.0 1021.13 1.03000E-05
1846.0 1032.37 1.03000E-05
1847.0 1044.49 1.02000E-05
1848.0 1057.47 1.02000E-05
1849.0 1071.33 1.02000E-05
1850.0 1086.05 1.02000E-05
1851.0 1073.08 1.02000E-05
1852.0 1090.33 1.01000E-05
1853.0 1110.23 1.01000E-05
1854.0 1132.77 1.01000E-05
1855.0 1157.95 1.01000E-05
1856.0 1185.77 1.00000E-05
1857.0 1216.22 1.00000E-05
1858.0 1249.32 1.00000E-05
1859.0 1285.06 1.00000E-05
1860.0 1289.72 9.90000E-06
1861.0 1334.59 9.90000E-06
1862.0 1384.46 9.90000E-06
1863.0 1439.33 9.90000E-06
1864.0 1499.20 9.80000E-06
1865.0 1542.02 9.80000E-06
1866.0 1612.74 9.80000E-06
1867.0 1690.44 9.80000E-06
1868.0 1775.12 9.80000E-06
1869.0 1866.79 9.70000E-06
1870.0 1965.44 9.70000E-06
1871.0 2071.08 9.70000E-06
1872.0 2233.75 9.70000E-06
1873.0 2347.42 9.60000E-06
1874.0 2465.03 9.60000E-06
1875.0 2586.58 9.60000E-06
1876.0 2712.06 9.60000E-06
1877.0 2841.48 9.60000E-06
1878.0 2974.83 9.50000E-06
1879.0 2791.64 9.50000E-06
1880.0 2936.04 9.50000E-06
1881.0 3099.51 9.50000E-06
1882.0 3282.08 9.40000E-06
1883.0 3483.72 9.40000E-06
1884.0 3704.45 9.40000E-06
1885.0 3944.27 9.40000E-06
1886.0 4203.17 9.40000E-06
1887.0 4481.15 9.30000E-06
1888.0 4778.22 9.30000E-06
1889.0 5094.37 9.30000E-06
1890.0 5342.55 9.30000E-06
1891.0 5664.87 9.30000E-06
1892.0 6007.14 9.20000E-06
1893.0 6369.35 9.20000E-06
1894.0 7116.88 9.20000E-06
1895.0 7597.30 9.20000E-06
1896.0 8053.98 9.20000E-06
1897.0 8486.94 9.10000E-06
1898.0 8896.15 9.10000E-06
1899.0 9281.64 9.10000E-06
1900.0 9643.39 9.10000E-06
1901.0 9893.33 9.00000E-06
1902.0 10199.7 9.00000E-06
1903.0 10489.5 9.00000E-06
1904.0 10762.6 9.00000E-06
1905.0 11019.1 9.00000E-06
1906.0 11258.9 8.90000E-06
1907.0 11482.1 8.90000E-06
1908.0 11574.5 8.90000E-06
1909.0 11766.7 8.90000E-06
1910.0 11947.6 8.90000E-06
1911.0 12117.2 8.80000E-06
1912.0 12275.5 8.80000E-06
1913.0 12422.5 8.80000E-06
1914.0 12558.2 8.80000E-06
1915.0 12682.7 8.80000E-06
1916.0 12795.9 8.70000E-06
1917.0 12897.8 8.70000E-06
1918.0 12988.4 8.70000E-06
1919.0 13067.7 8.70000E-06
1920.0 13027.3 8.70000E-06
1921.0 13112.7 8.60000E-06
1922.0 13194.4 8.60000E-06
1923.0 13305.8 8.60000E-06
1924.0 13401.7 8.60000E-06
1925.0 13486.8 8.60000E-06
1926.0 13561.3 8.60000E-06
1927.0 13625.2 8.50000E-06
1928.0 13678.4 8.50000E-06
1929.0 13720.9 8.50000E-06
1930.0 13705.1 8.50000E-06
1931.0 13713.0 8.50000E-06
1932.0 13713.8 8.40000E-06
1933.0 13707.4 8.40000E-06
1934.0 13693.8 8.40000E-06
1935.0 13673.0 8.40000E-06
1936.0 13645.1 8.40000E-06
1937.0 13610.0 8.30000E-06
1938.0 13567.8 8.30000E-06
1939.0 13518.3 8.30000E-06
1940.0 13438.2 8.30000E-06
1941.0 13384.8 8.30000E-06
1942.0 13326.2 8.30000E-06
1943.0 13262.4 8.20000E-06
1944.0 13193.3 8.20000E-06
1945.0 13083.8 8.20000E-06
1946.0 12996.9 8.20000E-06
1947.0 12907.7 8.20000E-06
1948.0 12816.4 8.10000E-06
1949.0 12722.9 8.10000E-06
1950.0 12627.1 8.10000E-06
1951.0 12529.3 8.10000E-06
1952.0 12429.2 8.10000E-06
1953.0 12305.4 8.10000E-06
1954.0 12206.0 8.00000E-06
1955.0 12105.6 8.00000E-06
1956.0 12004.3 8.00000E-06
1957.0 11902.0 8.00000E-06
1958.0 11798.7 8.00000E-06
1959.0 11694.4 7.90000E-06
1960.0 11557.6 7.90000E-06
1961.0 11448.5 7.90000E-06
1962.0 11340.4 7.90000E-06
1963.0 11233.2 7.90000E-06
1964.0 11127.0 7.90000E-06
1965.0 11021.7 7.80000E-06
1966.0 10917.3 7.80000E-06
1967.0 10813.9 7.80000E-06
1968.0 10727.4 7.80000E-06
1969.0 10626.2 7.80000E-06
1970.0 10525.2 7.80000E-06
1971.0 10424.2 7.70000E-06
1972.0 10323.3 7.70000E-06
1973.0 10222.5 7.70000E-06
1974.0 10121.9 7.70000E-06
1975.0 10021.3 7.70000E-06
1976.0 9911.38 7.70000E-06
1977.0 9811.65 7.60000E-06
1978.0 9712.52 7.60000E-06
1979.0 9613.99 7.60000E-06
1980.0 9516.04 7.60000E-06
1981.0 9418.70 7.60000E-06
1982.0 9321.94 7.60000E-06
1983.0 9225.78 7.50000E-06
1984.0 9120.88 7.50000E-06
1985.0 9025.75 7.50000E-06
1986.0 8931.71 7.50000E-06
1987.0 8838.74 7.50000E-06
1988.0 8746.85 7.50000E-06
1989.0 8656.04 7.40000E-06
1990.0 8566.30 7.40000E-06
1991.0 8477.65 7.40000E-06
1992.0 8399.71 7.40000E-06
1993.0 8312.58 7.40000E-06
1994.0 8226.02 7.40000E-06
1995.0 8140.04 7.30000E-06
1996.0 8054.64 7.30000E-06
1997.0 7969.82 7.30000E-06
1998.0 7885.57 7.30000E-06
1999.0 7801.91 7.30000E-06
2000.0 7709.63 7.30000E-06
2001.0 7628.54 7.20000E-06
2002.0 7548.49 7.20000E-06
2003.0 7469.51 7.20000E-06
2004.0 7391.58 7.20000E-06
2005.0 7314.70 7.20000E-06
2006.0 7238.88 7.20000E-06
2007.0 7164.12 7.20000E-06
2008.0 7091.51 7.10000E-06
2009.0 7017.23 7.10000E-06
2010.0 6943.94 7.10000E-06
2011.0 6871.66 7.10000E-06
2012.0 6800.37 7.10000E-06
2013.0 6730.08 7.10000E-06
2014.0 6660.79 7.00000E-06
2015.0 6592.50 7.00000E-06
2016.0 6536.64 7.00000E-06
2017.0 6471.22 7.00000E-06
2018.0 6406.20 7.00000E-06
2019.0 6341.59 7.00000E-06
2020.0 6277.38 7.00000E-06
2021.0 6213.57 6.90000E-06
2022.0 6150.17 6.90000E-06
2023.0 6087.17 6.90000E-06
2024.0 6016.31 6.90000E-06
2025.0 5953.98 6.90000E-06
2026.0 5892.48 6.90000E-06
2027.0 5831.82 6.90000E-06
2028.0 5771.99 6.80000E-06
2029.0 5712.99 6.80000E-06
2030.0 5654.82 6.80000E-06
2031.0 5597.49 6.80000E-06
2032.0 5528.78 6.80000E-06
2033.0 5473.85 6.80000E-06
2034.0 5420.38 6.80000E-06
2035.0 5368.35 6.70000E-06
2036.0 5317.78 6.70000E-06
2037.0 5268.66 6.70000E-06
2038.0 5220.99 6.70000E-06
2039.0 5174.78 6.70000E-06
2040.0 5161.50 6.70000E-06
2041.0 5116.67 6.70000E-06
2042.0 5071.98 6.60000E-06
2043.0 5027.43 6.60000E-06
2044.0 4983.01 6.60000E-06
2045.0 4938.73 6.60000E-06
2046.0 4894.59 6.60000E-06
2047.0 4850.58 6.60000E-06
2048.0 4806.71 6.60000E-06
2049.0 4762.98 6.50000E-06
2050.0 4730.40 6.50000E-06
2051.0 4689.07 6.50000E-06
2052.0 4647.46 6.50000E-06
2053.0 4605.55 6.50000E-06
2054.0 4563.35 6.50000E-06
2055.0 4520.86 6.50000E-06
2056.0 4478.09 6.40000E-06
2057.0 4411.65 6.40000E-06
2058.0 4365.71 6.40000E-06
2059.0 4320.73 6.40000E-06
2060.0 4276.70 6.40000E-06
2061.0 4233.63 6.40000E-06
2062.0 4191.52 6.40000E-06
2063.0 4150.37 6.40000E-06
2064.0 4110.17 6.30000E-06
2065.0 4070.93 6.30000E-06
2066.0 4039.59 6.30000E-06
2067.0 4002.67 6.30000E-06
2068.0 3966.38 6.30000E-06
2069.0 3930.72 6.30000E-06
2070.0 3895.68 6.30000E-06
2071.0 3861.28 6.20000E-06
2072.0 3827.50 6.20000E-06
2073.0 3794.35 6.20000E-06
2074.0 3763.92 6.20000E-06
2075.0 3731.56 6.20000E-06
2076.0 3699.75 6.20000E-06
2077.0 3668.47 6.20000E-06
2078.0 3637.73 6.20000E-06
2079.0 3607.53 6.10000E-06
2080.0 3577.87 6.10000E-06
2081.0 3548.75 6.10000E-06
2082.0 3520.17 6.10000E-06
2083.0 3502.61 6.10000E-06
2084.0 3475.02 6.10000E-06
2085.0 3447.53 6.10000E-06
2086.0 3420.15 6.10000E-06
2087.0 3392.86 6.00000E-06
2088.0 3365.67 6.00000E-06
2089.0 3338.58 6.00000E-06
2090.0 3311.60 6.00000E-06
2091.0 3284.71 6.00000E-06
2092.0 3261.73 6.00000E-06
2093.0 3228.62 6.00000E-06
2094.0 3194.16 6.00000E-06
2095.0 3158.35 5.90000E-06
2096.0 3121.19 5.90000E-06
2097.0 3082.68 5.90000E-06
2098.0 3042.83 5.90000E-06
2099.0 3001.62 5.90000E-06
2100.0 2959.08 5.90000E-06
2101.0 2944.94 5.90000E-06
2102.0 2930.73 5.90000E-06
2103.0 2916.44 5.80000E-06
2104.0 2902.09 5.80000E-06
2105.0 2887.66 5.80000E-06
2106.0 2873.16 5.80000E-06
2107.0 2858.59 5.80000E-06
2108.0 2843.95 5.80000E-06
2109.0 2829.24 5.80000E-06
2110.0 2814.46 5.80000E-06
2111.0 2799.61 5.80000E-06
2112.0 2784.68 5.70000E-06
2113.0 2769.68 5.70000E-06
2114.0 2754.62 5.70000E-06
2115.0 2739.48 5.70000E-06
2116.0 2724.27 5.70000E-06
2117.0 2708.99 5.70000E-06
2118.0 2684.88 5.70000E-06
2119.0 2672.31 5.70000E-06
2120.0 2659.53 5.60000E-06
2121.0 2646.53 5.60000E-06
2122.0 2633.31 5.60000E-06
2123.0 2619.87 5.60000E-06
2124.0 2606.22 5.60000E-06
2125.0 2592.34 5.60000E-06
2126.0 2578.25 5.60000E-06
2127.0 2553.18 5.60000E-06
2128.0 2538.58 5.60000E-06
2129.0 2524.18 5.50000E-06
2130.0 2509.97 5.50000E-06
2131.0 2495.96 5.50000E-06
2132.0 2482.14 5.50000E-06
2133.0 2468.52 5.50000E-06
2134.0 2455.09 5.50000E-06
2135.0 2441.86 5.50000E-06
2136.0 2426.92 5.50000E-06
2137.0 2414.24 5.50000E-06
2138.0 2401.84 5.40000E-06
2139.0 2389.71 5.40000E-06
2140.0 2377.85 5.40000E-06
2141.0 2366.26 5.40000E-06
2142.0 2354.94 5.40000E-06
2143.0 2343.90 5.40000E-06
2144.0 2333.12 5.40000E-06
2145.0 2323.32 5.40000E-06
2146.0 2312.87 5.40000E-06
2147.0 2302.67 5.30000E-06
2148.0 2292.72 5.30000E-06
2149.0 2283.01 5.30000E-06
2150.0 2273.56 5.30000E-06
2151.0 2264.35 5.30000E-06
2152.0 2255.39 5.30000E-06
2153.0 2246.68 5.30000E-06
2154.0 2238.21 5.30000E-06
2155.0 2233.93 5.30000E-06
2156.0 2225.91 5.30000E-06
2157.0 2217.99 5.20000E-06
2158.0 2210.18 5.20000E-06
2159.0 2202.46 5.20000E-06
2160.0 2194.85 5.20000E-06
2161.0 2187.34 5.20000E-06
2162.0 2179.93 5.20000E-06
2163.0 2172.62 5.20000E-06
2164.0 2163.00 5.20000E-06
2165.0 2156.07 5.20000E-06
2166.0 2149.34 5.10000E-06
2167.0 2142.81 5.10000E-06
2168.0 2136.49 5.10000E-06
2169.0 2130.36 5.10000E-06
2170.0 2124.44 5.10000E-06
2171.0 2118.71 5.10000E-06
2172.0 2113.19 5.10000E-06
2173.0 2109.46 5.10000E-06
2174.0 2104.09 5.10000E-06
2175.0 2098.86 5.10000E-06
2176.0 2093.79 5.00000E-06
2177.0 2088.85 5.00000E-06
2178.0 2084.07 5.00000E-06
2179.0 2079.43 5.00000E-06
2180.0 2074.94 5.00000E-06
2181.0 2070.59 5.00000E-06
2182.0 2066.39 5.00000E-06
2183.0 2063.34 5.00000E-06
2184.0 2059.69 5.00000E-06
2185.0 2056.15 5.00000E-06
2186.0 2052.72 4.90000E-06
2187.0 2049.41 4.90000E-06
2188.0 2046.21 4.90000E-06
2189.0 2043.12 4.90000E-06
2190.0 2040.15 4.90000E-06
2191.0 2037.29 4.90000E-06
2192.0 2034.54 4.90000E-06
2193.0 2030.77 4.90000E-06
2194.0 2028.10 4.90000E-06
2195.0 2025.58 4.90000E-06
2196.0 2023.22 4.90000E-06
2197.0 2021.01 4.80000E-06
2198.0 2018.94 4.80000E-06
2199.0 2017.04 4.80000E-06
2200.0 2015.28 4.80000E-06
2201.0 2013.68 4.80000E-06
2202.0 2013.00 4.80000E-06
2203.0 2011.83 4.80000E-06
2204.0 2010.78 4.80000E-06
2205.0 2009.86 4.80000E-06
2206.0 2009.05 4.80000E-06
2207.0 2008.37 4.70000E-06
2208.0 2007.82 4.70000E-06
2209.0 2007.38 4.70000E-06
2210.0 2007.07 4.70000E-06
2211.0 2006.88 4.70000E-06
2212.0 2005.43 4.70000E-06
2213.0 2005.45 4.70000E-06
2214.0 2005.65 4.70000E-06
2215.0 2006.01 4.70000E-06
2216.0 2006.54 4.70000E-06
2217.0 2007.24 4.70000E-06
2218.0 2008.12 4.60000E-06
2219.0 2009.16 4.60000E-06
2220.0 2010.37 4.60000E-06
2221.0 2011.75 4.60000E-06
2222.0 2014.21 4.60000E-06
2223.0 2015.88 4.60000E-06
2224.0 2017.70 4.60000E-06
2225.0 2019.65 4.60000E-06
2226.0 2021.74 4.60000E-06
2227.0 2023.97 4.60000E-06
2228.0 2026.34 4.60000E-06
2229.0 2028.85 4.50000E-06
2230.0 2031.50 4.50000E-06
2231.0 2034.29 4.50000E-06
2232.0 2038.12 4.50000E-06
2233.0 2041.19 4.50000E-06
2234.0 2044.38 4.50000E-06
2235.0 2047.68 4.50000E-06
2236.0 2051.09 4.50000E-06
2237.0 2054.60 4.50000E-06
2238.0 2058.23 4.50000E-06
2239.0 2061.96 4.50000E-06
2240.0 2065.81 4.50000E-06
2241.0 2069.76 4.40000E-06
2242.0 2071.36 4.40000E-06
2243.0 2075.66 4.40000E-06
2244.0 2080.15 4.40000E-06
2245.0 2084.82 4.40000E-06
2246.0 2089.69 4.40000E-06
2247.0 2094.75 4.40000E-06
2248.0 2100.00 4.40000E-06
2249.0 2105.44 4.40000E-06
2250.0 2111.07 4.40000E-06
2251.0 2116.90 4.40000E-06
2252.0 2122.98 4.40000E-06
2253.0 2129.01 4.30000E-06
2254.0 2135.24 4.30000E-06
2255.0 2141.66 4.30000E-06
2256.0 2148.26 4.30000E-06
2257.0 2155.05 4.30000E-06
2258.0 2162.03 4.30000E-06
2259.0 2169.20 4.30000E-06
2260.0 2176.56 4.30000E-06
2261.0 2184.11 4.30000E-06
2262.0 2193.66 4.30000E-06
2263.0 2201.66 4.30000E-06
2264.0 2209.79 4.30000E-06
2265.0 2218.05 4.20000E-06
2266.0 2226.44 4.20000E-06
2267.0 2234.95 4.20000E-06
2268.0 2243.60 4.20000E-06
2269.0 2252.37 4.20000E-06
2270.0 2261.27 4.20000E-06
2271.0 2270.30 4.20000E-06
2272.0 2276.20 4.20000E-06
2273.0 2285.54 4.20000E-06
2274.0 2295.11 4.20000E-06
2275.0 2304.90 4.20000E-06
2276.0 2314.92 4.20000E-06
2277.0 2325.17 4.10000E-06
2278.0 2335.65 4.10000E-06
2279.0 2346.35 4.10000E-06
2280.0 2357.28 4.10000E-06
2281.0 2368.44 4.10000E-06
2282.0 2379.82 4.10000E-06
2283.0 2393.76 4.10000E-06
2284.0 2405.29 4.10000E-06
2285.0 2416.97 4.10000E-06
2286.0 2428.81 4.10000E-06
2287.0 2440.81 4.10000E-06
2288.0 2452.96 4.10000E-06
2289.0 2465.27 4.10000E-06
2290.0 2477.74 4.00000E-06
2291.0 2490.36 4.00000E-06
2292.0 2503.13 4.00000E-06
2293.0 2513.87 4.00000E-06
2294.0 2527.33 4.00000E-06
2295.0 2541.02 4.00000E-06
2296.0 2554.93 4.00000E-06
2297.0 2569.06 4.00000E-06
2298.0 2583.41 4.00000E-06
2299.0 2597.98 4.00000E-06
2300.0 2612.77 4.00000E-06
2301.0 2627.79 4.00000E-06
2302.0 2643.02 4.00000E-06
2303.0 2658.48 4.00000E-06
2304.0 2673.33 3.90000E-06
2305.0 2688.84 3.90000E-06
2306.0 2704.58 3.90000E-06
2307.0 2720.57 3.90000E-06
2308.0 2736.81 3.90000E-06
2309.0 2753.29 3.90000E-06
2310.0 2770.02 3.90000E-06
2311.0 2786.99 3.90000E-06
2312.0 2804.20 3.90000E-06
2313.0 2821.67 3.90000E-06
2314.0 2844.52 3.90000E-06
2315.0 2862.70 3.90000E-06
2316.0 2880.98 3.90000E-06
2317.0 2899.34 3.80000E-06
2318.0 2917.79 3.80000E-06
2319.0 2936.33 3.80000E-06
2320.0 2954.96 3.80000E-06
2321.0 2973.68 3.80000E-06
2322.0 2992.48 3.80000E-06
2323.0 3011.37 3.80000E-06
2324.0 3030.35 3.80000E-06
2325.0 3030.72 3.80000E-06
2326.0 3050.64 3.80000E-06
2327.0 3071.15 3.80000E-06
2328.0 3092.27 3.80000E-06
2329.0 3114.00 3.80000E-06
2330.0 3136.32 3.80000E-06
2331.0 3159.26 3.70000E-06
2332.0 3182.79 3.70000E-06
2333.0 3206.93 3.70000E-06
2334.0 3231.67 3.70000E-06
2335.0 3257.02 3.70000E-06
2336.0 3311.16 3.70000E-06
2337.0 3335.41 3.70000E-06
2338.0 3359.47 3.70000E-06
2339.0 3383.36 3.70000E-06
2340.0 3407.08 3.70000E-06
2341.0 3430.63 3.70000E-06
2342.0 3454.00 3.70000E-06
2343.0 3477.20 3.70000E-06
2344.0 3500.23 3.70000E-06
2345.0 3523.08 3.70000E-06
2346.0 3545.76 3.60000E-06
2347.0 3569.98 3.60000E-06
2348.0 3595.02 3.60000E-06
2349.0 3619.83 3.60000E-06
2350.0 3644.42 3.60000E-06
2351.0 3668.80 3.60000E-06
2352.0 3692.95 3.60000E-06
2353.0 3716.88 3.60000E-06
2354.0 3740.59 3.60000E-06
2355.0 3764.08 3.60000E-06
2356.0 3787.35 3.60000E-06
2357.0 3810.40 3.60000E-06
2358.0 3808.26 3.60000E-06
2359.0 3829.34 3.60000E-06
2360.0 3850.88 3.60000E-06
2361.0 3872.91 3.50000E-06
2362.0 3895.40 3.50000E-06
2363.0 3918.37 3.50000E-06
2364.0 3941.81 3.50000E-06
2365.0 3965.72 3.50000E-06
2366.0 3990.11 3.50000E-06
2367.0 4014.96 3.50000E-06
2368.0 4040.29 3.50000E-06
2369.0 4076.36 3.50000E-06
2370.0 4103.45 3.50000E-06
2371.0 4130.75 3.50000E-06
2372.0 4158.25 3.50000E-06
2373.0 4185.96 3.50000E-06
2374.0 4213.87 3.50000E-06
2375.0 4241.99 3.50000E-06
2376.0 4270.32 3.50000E-06
2377.0 4298.85 3.40000E-06
2378.0 4327.59 3.40000E-06
2379.0 4356.54 3.40000E-06
2380.0 4385.69 3.40000E-06
2381.0 4407.82 3.40000E-06
2382.0 4437.31 3.40000E-06
2383.0 4467.18 3.40000E-06
2384.0 4497.44 3.40000E-06
2385.0 4528.10 3.40000E-06
2386.0 4559.13 3.40000E-06
2387.0 4590.56 3.40000E-06
2388.0 4622.37 3.40000E-06
2389.0 4654.57 3.40000E-06
2390.0 4687.16 3.40000E-06
2391.0 4720.14 3.40000E-06
2392.0 4762.11 3.40000E-06
2393.0 4795.56 3.30000E-06
2394.0 4829.15 3.30000E-06
2395.0 4862.90 3.30000E-06
2396.0 4896.80 3.30000E-06
2397.0 4930.86 3.30000E-06
2398.0 4965.06 3.30000E-06
2399.0 4999.42 3.30000E-06
2400.0 5033.94 3.30000E-06
2401.0 5068.60 3.30000E-06
2402.0 5103.42 3.30000E-06
2403.0 5134.99 3.30000E-06
2404.0 5170.63 3.30000E-06
2405.0 5206.51 3.30000E-06
2406.0 5242.61 3.30000E-06
2407.0 5278.95 3.30000E-06
2408.0 5315.52 3.30000E-06
2409.0 5352.33 3.30000E-06
2410.0 5389.37 3.20000E-06
2411.0 5426.64 3.20000E-06
2412.0 5464.14 3.20000E-06
2413.0 5501.87 3.20000E-06
2414.0 5539.84 3.20000E-06
2415.0 5578.67 3.20000E-06
2416.0 5616.48 3.20000E-06
2417.0 5654.51 3.20000E-06
2418.0 5692.77 3.20000E-06
2419.0 5731.24 3.20000E-06
2420.0 5769.93 3.20000E-06
2421.0 5808.85 3.20000E-06
2422.0 5847.98 3.20000E-06
2423.0 5887.34 3.20000E-06
2424.0 5926.92 3.20000E-06
2425.0 5966.71 3.20000E-06
2426.0 6006.73 3.20000E-06
2427.0 6034.86 3.10000E-06
2428.0 6076.41 3.10000E-06
2429.0 6118.45 3.10000E-06
2430.0 6161.00 3.10000E-06
2431.0 6204.04 3.10000E-06
2432.0 6247.59 3.10000E-06
2433.0 6291.64 3.10000E-06
2434.0 6336.19 3.10000E-06
2435.0 6381.24 3.10000E-06
2436.0 6426.79 3.10000E-06
2437.0 6472.84 3.10000E-06
2438.0 6519.39 3.10000E-06
2439.0 6543.69 3.10000E-06
2440.0 6590.86 3.10000E-06
2441.0 6639.05 3.10000E-06
2442.0 6688.27 3.10000E-06
2443.0 6738.52 3.10000E-06
2444.0 6789.80 3.10000E-06
2445.0 6842.10 3.10000E-06
2446.0 6895.43 3.00000E-06
2447.0 6949.79 3.00000E-06
2448.0 7005.18 3.00000E-06
2449.0 7061.60 3.00000E-06
